# TOF 2D monitor output
# 
#     counts=       738
#     total intensity=9.8588e+08 +/-        nan neutron counts
# 
#                         intensity +- stdv [n/cm^2/AA] 
# x [m]       y [m]       wavelength [AA]
 #                             0.0000               0.1000               0.2000               0.3000               0.4000               0.5000               0.6000               0.7000               0.8000               0.9000               1.0000               1.1000               1.2000               1.3000               1.4000               1.5000               1.6000               1.7000               1.8000               1.9000               2.0000               2.1000               2.2000               2.3000               2.4000               2.5000               2.6000               2.7000               2.8000               2.9000               3.0000               3.1000               3.2000               3.3000               3.4000               3.5000               3.6000               3.7000               3.8000               3.9000               4.0000               4.1000               4.2000               4.3000               4.4000               4.5000               4.6000               4.7000               4.8000               4.9000               5.0000               5.1000               5.2000               5.3000               5.4000               5.5000               5.6000               5.7000               5.8000               5.9000               6.0000               6.1000               6.2000               6.3000               6.4000               6.5000               6.6000               6.7000               6.8000               6.9000               7.0000               7.1000               7.2000               7.3000               7.4000               7.5000               7.6000               7.7000               7.8000               7.9000               8.0000               8.1000               8.2000               8.3000               8.4000               8.5000               8.6000               8.7000               8.8000               8.9000               9.0000               9.1000               9.2000               9.3000               9.4000               9.5000               9.6000               9.7000               9.8000               9.9000              10.0000         
#
      0.0000      0.0000  0.0000e+00  0.00000  0.0000e+00  0.00000  1.1111e+03  0.00000  4.5974e+05  0.00000  4.7284e+05  0.00000  2.8095e+05  0.00000  1.6935e+05  0.00000  1.7660e+05  0.00000  4.7930e+05  0.00000  1.2248e+05  0.00000  1.6673e+05  0.00000  3.9201e+04  0.00000  1.5027e+05  0.00000  2.2099e+05  0.00000  1.8488e+05  0.00000  5.1061e+04  0.00000  3.8700e+04  0.00000  1.9325e+04  0.00000  1.7440e+04  0.00000  2.4718e+04  0.00000  4.7402e+04  0.00000  4.6283e+04  0.00000  1.7587e+04  0.00000  1.4054e+04  0.00000  2.0437e+04  0.00000  1.1646e+04  0.00000  7.9747e+03  0.00000  1.3037e+04  0.00000  1.2007e+04  0.00000  1.1627e+04  0.00000  4.5476e+03  0.00000  3.2835e+03  0.00000  2.0749e+03  0.00000  1.1737e+04  0.00000  1.0303e+03  0.00000  2.9441e+03  0.00000  4.8293e+03  0.00000  2.5472e+03  0.00000  1.3899e+03  0.00000  2.6124e+03  0.00000  1.8755e+03  0.00000  1.2952e+03  0.00000  8.7529e+02  0.00000  7.0673e+02  0.00000  7.2941e+02  0.00000  2.7647e+02  0.00000  7.4112e+02  0.00000  4.8880e+02  0.00000  7.4148e+02  0.00000  8.1342e+01  0.00000  2.3245e+02  0.00000  4.1174e+02  0.00000  3.9992e+02  0.00000  1.5608e+01  0.00000  1.7953e+02  0.00000  1.9360e+02  0.00000  2.4553e+02  0.00000  1.1937e+01  0.00000  1.9853e+02  0.00000  0.0000e+00  0.00000  4.2714e+01  0.00000  1.0765e+02  0.00000  5.6774e+01  0.00000  5.4368e+01  0.00000  1.2393e+02  0.00000  4.9518e+01  0.00000  5.4754e+01  0.00000  4.7079e+01  0.00000  1.2229e+01  0.00000  5.4643e+01  0.00000  1.2815e+02  0.00000  3.4038e-01  0.00000  4.0631e+01  0.00000  3.5149e+01  0.00000  1.3852e+01  0.00000  9.5572e+00  0.00000  7.1875e+00  0.00000  5.8995e+01  0.00000  1.1783e+01  0.00000  1.9475e+01  0.00000  1.3272e+01  0.00000  2.4943e+01  0.00000  5.2898e+00  0.00000  4.6431e+01  0.00000  8.3614e+01  0.00000  6.8647e+00  0.00000  1.6163e+00  0.00000  3.5574e-01  0.00000  2.5102e+00  0.00000  2.2177e+01  0.00000  2.7612e+00  0.00000  3.3678e+00  0.00000  5.0139e+00  0.00000  4.8532e+00  0.00000  3.5694e-01  0.00000  2.0228e+00  0.00000  5.8804e+00  0.00000  1.8440e+01  0.00000  2.3496e+00  0.00000  9.6180e+00  0.00000

