# TOF 2D monitor output
# 
#     counts=       972
#     total intensity=1.5352e+09 +/-        nan neutron counts
# 
#                         intensity +- stdv [n/cm^2/AA] 
# x [m]       y [m]       wavelength [AA]
 #                             0.0000               0.1000               0.2000               0.3000               0.4000               0.5000               0.6000               0.7000               0.8000               0.9000               1.0000               1.1000               1.2000               1.3000               1.4000               1.5000               1.6000               1.7000               1.8000               1.9000               2.0000               2.1000               2.2000               2.3000               2.4000               2.5000               2.6000               2.7000               2.8000               2.9000               3.0000               3.1000               3.2000               3.3000               3.4000               3.5000               3.6000               3.7000               3.8000               3.9000               4.0000               4.1000               4.2000               4.3000               4.4000               4.5000               4.6000               4.7000               4.8000               4.9000               5.0000               5.1000               5.2000               5.3000               5.4000               5.5000               5.6000               5.7000               5.8000               5.9000               6.0000               6.1000               6.2000               6.3000               6.4000               6.5000               6.6000               6.7000               6.8000               6.9000               7.0000               7.1000               7.2000               7.3000               7.4000               7.5000               7.6000               7.7000               7.8000               7.9000               8.0000               8.1000               8.2000               8.3000               8.4000               8.5000               8.6000               8.7000               8.8000               8.9000               9.0000               9.1000               9.2000               9.3000               9.4000               9.5000               9.6000               9.7000               9.8000               9.9000              10.0000         
#
      0.0000      0.0000  0.0000e+00  0.00000  0.0000e+00  0.00000  1.4217e+05  0.00000  5.1885e+05  0.00000  5.4133e+05  0.00000  4.8351e+05  0.00000  4.1423e+05  0.00000  2.7474e+05  0.00000  5.6925e+05  0.00000  2.5325e+05  0.00000  3.6630e+05  0.00000  3.5545e+05  0.00000  3.1685e+05  0.00000  1.3170e+05  0.00000  1.4374e+05  0.00000  1.6318e+05  0.00000  6.3563e+04  0.00000  6.4675e+04  0.00000  8.0198e+04  0.00000  5.4380e+04  0.00000  3.7810e+04  0.00000  4.3427e+04  0.00000  1.9883e+04  0.00000  2.7321e+04  0.00000  1.0151e+04  0.00000  1.2145e+04  0.00000  1.5400e+04  0.00000  1.9232e+04  0.00000  6.9791e+03  0.00000  3.2444e+03  0.00000  5.1597e+03  0.00000  9.7768e+03  0.00000  4.0247e+03  0.00000  6.4620e+03  0.00000  1.4574e+02  0.00000  2.5959e+03  0.00000  1.4109e+03  0.00000  1.8763e+03  0.00000  2.0482e+03  0.00000  1.0742e+03  0.00000  1.6244e+03  0.00000  1.2337e+03  0.00000  6.2151e+02  0.00000  1.1875e+03  0.00000  8.1001e+02  0.00000  4.2852e+02  0.00000  2.1798e+02  0.00000  5.7942e+02  0.00000  5.8533e+02  0.00000  6.2041e+02  0.00000  2.0828e+02  0.00000  7.7914e+01  0.00000  0.0000e+00  0.00000  3.5507e+02  0.00000  2.0083e+02  0.00000  2.1297e+02  0.00000  1.6431e+02  0.00000  2.9037e+02  0.00000  1.7640e+02  0.00000  8.7699e+01  0.00000  2.6848e+02  0.00000  7.4004e+01  0.00000  1.8946e+01  0.00000  1.5700e+02  0.00000  1.9385e+02  0.00000  1.8210e+02  0.00000  7.8180e+00  0.00000  1.1416e+01  0.00000  3.7780e+01  0.00000  2.4257e+01  0.00000  1.8693e+01  0.00000  2.5689e+01  0.00000  1.1967e+02  0.00000  7.4291e+00  0.00000  1.9320e+01  0.00000  3.6323e-01  0.00000  1.0586e+01  0.00000  2.1070e+01  0.00000  1.1306e+01  0.00000  1.1745e+01  0.00000  1.6876e+01  0.00000  0.0000e+00  0.00000  1.4451e+01  0.00000  2.1149e+00  0.00000  1.4362e+01  0.00000  1.7137e+00  0.00000  2.6200e+00  0.00000  1.3103e+01  0.00000  7.7262e+00  0.00000  0.0000e+00  0.00000  1.7779e+00  0.00000  1.2990e+00  0.00000  8.8391e+00  0.00000  5.7633e+00  0.00000  4.9933e+00  0.00000  7.6566e-01  0.00000  4.4722e+00  0.00000  3.3396e+00  0.00000  4.3898e-01  0.00000  0.0000e+00  0.00000

